MS01BRED
Wavelength = 1.54059
5	7.00
5.0204	15.00
5.0409	14.00
5.0613	14.00
5.0817	8.00
5.1021	10.00
5.1226	12.00
5.143	13.00
5.1634	4.00
5.1838	13.00
5.2042	4.00
5.2247	10.00
5.2451	15.00
5.2655	11.00
5.2859	8.00
5.3064	10.00
5.3268	13.00
5.3472	5.00
5.3676	11.00
5.3881	12.00
5.4085	15.00
5.4289	10.00
5.4493	15.00
5.4698	8.00
5.4902	16.00
5.5106	8.00
5.531	10.00
5.5515	2.00
5.5719	8.00
5.5923	10.00
5.6127	8.00
5.6332	13.00
5.6536	6.00
5.674	9.00
5.6944	7.00
5.7149	4.00
5.7353	7.00
5.7557	14.00
5.7761	7.00
5.7965	9.00
5.817	11.00
5.8374	8.00
5.8578	7.00
5.8782	11.00
5.8987	10.00
5.9191	13.00
5.9395	8.00
5.9599	8.00
5.9804	8.00
6.0008	12.00
6.0212	8.00
6.0416	7.00
6.0621	12.00
6.0825	8.00
6.1029	11.00
6.1233	10.00
6.1438	10.00
6.1642	9.00
6.1846	3.00
6.205	12.00
6.2255	9.00
6.2459	9.00
6.2663	13.00
6.2867	11.00
6.3072	8.00
6.3276	6.00
6.348	11.00
6.3684	10.00
6.3888	13.00
6.4093	9.00
6.4297	14.00
6.4501	10.00
6.4705	12.00
6.491	10.00
6.5114	13.00
6.5318	11.00
6.5522	14.00
6.5727	9.00
6.5931	8.00
6.6135	11.00
6.6339	15.00
6.6544	7.00
6.6748	8.00
6.6952	19.00
6.7156	15.00
6.7361	11.00
6.7565	8.00
6.7769	16.00
6.7973	17.00
6.8178	11.00
6.8382	7.00
6.8586	10.00
6.879	8.00
6.8995	7.00
6.9199	12.00
6.9403	10.00
6.9607	11.00
6.9812	12.00
7.0016	12.00
7.022	5.00
7.0424	20.00
7.0628	16.00
7.0833	14.00
7.1037	12.00
7.1241	7.00
7.1445	12.00
7.165	17.00
7.1854	12.00
7.2058	12.00
7.2262	10.00
7.2467	10.00
7.2671	15.00
7.2875	17.00
7.3079	15.00
7.3284	7.00
7.3488	9.00
7.3692	11.00
7.3896	12.00
7.4101	10.00
7.4305	13.00
7.4509	16.00
7.4713	11.00
7.4918	14.00
7.5122	9.00
7.5326	14.00
7.553	11.00
7.5735	9.00
7.5939	9.00
7.6143	7.00
7.6347	13.00
7.6551	12.00
7.6756	12.00
7.696	11.00
7.7164	9.00
7.7368	11.00
7.7573	13.00
7.7777	14.00
7.7981	16.00
7.8185	11.00
7.839	13.00
7.8594	8.00
7.8798	12.00
7.9002	8.00
7.9207	24.00
7.9411	17.00
7.9615	13.00
7.9819	19.00
8.0024	15.00
8.0228	10.00
8.0432	15.00
8.0636	13.00
8.0841	14.00
8.1045	20.00
8.1249	10.00
8.1453	9.00
8.1658	9.00
8.1862	9.00
8.2066	16.00
8.227	9.00
8.2475	13.00
8.2679	10.00
8.2883	14.00
8.3087	9.00
8.3291	7.00
8.3496	10.00
8.37	6.00
8.3904	11.00
8.4108	14.00
8.4313	9.00
8.4517	12.00
8.4721	11.00
8.4925	17.00
8.513	5.00
8.5334	18.00
8.5538	14.00
8.5742	18.00
8.5947	16.00
8.6151	14.00
8.6355	16.00
8.6559	15.00
8.6764	19.00
8.6968	16.00
8.7172	16.00
8.7376	19.00
8.7581	19.00
8.7785	9.00
8.7989	12.00
8.8193	10.00
8.8398	16.00
8.8602	15.00
8.8806	19.00
8.901	21.00
8.9214	16.00
8.9419	9.00
8.9623	16.00
8.9827	17.00
9.0031	21.00
9.0236	9.00
9.044	11.00
9.0644	15.00
9.0848	20.00
9.1053	20.00
9.1257	16.00
9.1461	12.00
9.1665	19.00
9.187	11.00
9.2074	8.00
9.2278	16.00
9.2482	19.00
9.2687	16.00
9.2891	16.00
9.3095	18.00
9.3299	21.00
9.3504	16.00
9.3708	19.00
9.3912	18.00
9.4116	15.00
9.4321	11.00
9.4525	13.00
9.4729	19.00
9.4933	15.00
9.5138	26.00
9.5342	11.00
9.5546	15.00
9.575	9.00
9.5954	23.00
9.6159	20.00
9.6363	9.00
9.6567	13.00
9.6771	20.00
9.6976	11.00
9.718	23.00
9.7384	17.00
9.7588	21.00
9.7793	10.00
9.7997	25.00
9.8201	11.00
9.8405	15.00
9.861	13.00
9.8814	12.00
9.9018	18.00
9.9222	16.00
9.9427	14.00
9.9631	14.00
9.9835	18.00
10.0039	16.00
10.0244	13.00
10.0448	14.00
10.0652	12.00
10.0856	9.00
10.1061	8.00
10.1265	11.00
10.1469	14.00
10.1673	13.00
10.1877	13.00
10.2082	10.00
10.2286	11.00
10.249	6.00
10.2694	10.00
10.2899	10.00
10.3103	11.00
10.3307	10.00
10.3511	16.00
10.3716	10.00
10.392	14.00
10.4124	21.00
10.4328	11.00
10.4533	10.00
10.4737	23.00
10.4941	17.00
10.5145	16.00
10.535	13.00
10.5554	17.00
10.5758	18.00
10.5962	14.00
10.6167	9.00
10.6371	10.00
10.6575	14.00
10.6779	15.00
10.6984	9.00
10.7188	17.00
10.7392	10.00
10.7596	19.00
10.7801	21.00
10.8005	8.00
10.8209	13.00
10.8413	12.00
10.8617	13.00
10.8822	12.00
10.9026	15.00
10.923	17.00
10.9434	12.00
10.9639	14.00
10.9843	11.00
11.0047	9.00
11.0251	14.00
11.0456	12.00
11.066	13.00
11.0864	9.00
11.1068	9.00
11.1273	10.00
11.1477	11.00
11.1681	14.00
11.1885	9.00
11.209	11.00
11.2294	10.00
11.2498	14.00
11.2702	7.00
11.2907	8.00
11.3111	11.00
11.3315	12.00
11.3519	15.00
11.3724	12.00
11.3928	18.00
11.4132	14.00
11.4336	10.00
11.454	15.00
11.4745	5.00
11.4949	16.00
11.5153	15.00
11.5357	14.00
11.5562	19.00
11.5766	11.00
11.597	12.00
11.6174	17.00
11.6379	13.00
11.6583	12.00
11.6787	12.00
11.6991	14.00
11.7196	15.00
11.74	8.00
11.7604	19.00
11.7808	15.00
11.8013	12.00
11.8217	17.00
11.8421	16.00
11.8625	12.00
11.883	20.00
11.9034	14.00
11.9238	22.00
11.9442	12.00
11.9647	8.00
11.9851	13.00
12.0055	16.00
12.0259	10.00
12.0464	20.00
12.0668	13.00
12.0872	18.00
12.1076	17.00
12.128	17.00
12.1485	14.00
12.1689	13.00
12.1893	11.00
12.2097	11.00
12.2302	12.00
12.2506	20.00
12.271	23.00
12.2914	12.00
12.3119	15.00
12.3323	18.00
12.3527	14.00
12.3731	18.00
12.3936	12.00
12.414	10.00
12.4344	15.00
12.4548	17.00
12.4753	13.00
12.4957	17.00
12.5161	12.00
12.5365	12.00
12.557	19.00
12.5774	14.00
12.5978	20.00
12.6182	6.00
12.6387	16.00
12.6591	14.00
12.6795	20.00
12.6999	8.00
12.7203	9.00
12.7408	28.00
12.7612	11.00
12.7816	17.00
12.802	16.00
12.8225	15.00
12.8429	14.00
12.8633	12.00
12.8837	20.00
12.9042	18.00
12.9246	18.00
12.945	9.00
12.9654	10.00
12.9859	13.00
13.0063	12.00
13.0267	25.00
13.0471	12.00
13.0676	17.00
13.088	12.00
13.1084	17.00
13.1288	17.00
13.1493	15.00
13.1697	17.00
13.1901	15.00
13.2105	16.00
13.231	12.00
13.2514	9.00
13.2718	15.00
13.2922	15.00
13.3126	15.00
13.3331	15.00
13.3535	12.00
13.3739	18.00
13.3943	10.00
13.4148	12.00
13.4352	11.00
13.4556	22.00
13.476	10.00
13.4965	15.00
13.5169	14.00
13.5373	19.00
13.5577	18.00
13.5782	12.00
13.5986	16.00
13.619	23.00
13.6394	20.00
13.6599	14.00
13.6803	13.00
13.7007	21.00
13.7211	18.00
13.7416	16.00
13.762	11.00
13.7824	9.00
13.8028	10.00
13.8233	14.00
13.8437	20.00
13.8641	11.00
13.8845	9.00
13.905	13.00
13.9254	9.00
13.9458	13.00
13.9662	17.00
13.9866	12.00
14.0071	8.00
14.0275	15.00
14.0479	18.00
14.0683	22.00
14.0888	15.00
14.1092	16.00
14.1296	16.00
14.15	13.00
14.1705	16.00
14.1909	17.00
14.2113	11.00
14.2317	14.00
14.2522	16.00
14.2726	18.00
14.293	15.00
14.3134	15.00
14.3339	15.00
14.3543	12.00
14.3747	22.00
14.3951	18.00
14.4156	11.00
14.436	14.00
14.4564	20.00
14.4768	14.00
14.4973	13.00
14.5177	13.00
14.5381	13.00
14.5585	14.00
14.5789	24.00
14.5994	14.00
14.6198	19.00
14.6402	16.00
14.6606	14.00
14.6811	16.00
14.7015	11.00
14.7219	13.00
14.7423	16.00
14.7628	20.00
14.7832	10.00
14.8036	15.00
14.824	12.00
14.8445	14.00
14.8649	11.00
14.8853	16.00
14.9057	8.00
14.9262	16.00
14.9466	11.00
14.967	12.00
14.9874	14.00
15.0079	20.00
15.0283	21.00
15.0487	14.00
15.0691	18.00
15.0896	9.00
15.11	11.00
15.1304	12.00
15.1508	13.00
15.1713	20.00
15.1917	11.00
15.2121	14.00
15.2325	16.00
15.2529	15.00
15.2734	9.00
15.2938	16.00
15.3142	22.00
15.3346	19.00
15.3551	11.00
15.3755	6.00
15.3959	11.00
15.4163	15.00
15.4368	21.00
15.4572	15.00
15.4776	24.00
15.498	11.00
15.5185	14.00
15.5389	14.00
15.5593	10.00
15.5797	12.00
15.6002	10.00
15.6206	14.00
15.641	12.00
15.6614	9.00
15.6819	13.00
15.7023	9.00
15.7227	12.00
15.7431	12.00
15.7636	10.00
15.784	22.00
15.8044	8.00
15.8248	14.00
15.8452	19.00
15.8657	15.00
15.8861	15.00
15.9065	17.00
15.9269	20.00
15.9474	13.00
15.9678	21.00
15.9882	8.00
16.0086	14.00
16.0291	4.00
16.0495	10.00
16.0699	20.00
16.0903	15.00
16.1108	12.00
16.1312	15.00
16.1516	13.00
16.172	12.00
16.1925	15.00
16.2129	9.00
16.2333	15.00
16.2537	9.00
16.2742	9.00
16.2946	15.00
16.315	23.00
16.3354	13.00
16.3559	19.00
16.3763	15.00
16.3967	9.00
16.4171	11.00
16.4376	13.00
16.458	13.00
16.4784	15.00
16.4988	14.00
16.5192	14.00
16.5397	14.00
16.5601	15.00
16.5805	6.00
16.6009	16.00
16.6214	16.00
16.6418	11.00
16.6622	8.00
16.6826	16.00
16.7031	10.00
16.7235	10.00
16.7439	7.00
16.7643	15.00
16.7848	10.00
16.8052	12.00
16.8256	14.00
16.846	13.00
16.8665	16.00
16.8869	12.00
16.9073	9.00
16.9277	14.00
16.9482	13.00
16.9686	13.00
16.989	18.00
17.0094	12.00
17.0299	7.00
17.0503	10.00
17.0707	9.00
17.0911	16.00
17.1115	10.00
17.132	18.00
17.1524	17.00
17.1728	17.00
17.1932	14.00
17.2137	21.00
17.2341	21.00
17.2545	37.00
17.2749	36.00
17.2954	31.00
17.3158	58.00
17.3362	91.00
17.3566	88.00
17.3771	102.00
17.3975	71.00
17.4179	61.00
17.4383	47.00
17.4588	35.00
17.4792	27.00
17.4996	23.00
17.52	33.00
17.5405	17.00
17.5609	13.00
17.5813	32.00
17.6017	16.00
17.6222	16.00
17.6426	18.00
17.663	12.00
17.6834	17.00
17.7039	16.00
17.7243	18.00
17.7447	12.00
17.7651	13.00
17.7855	10.00
17.806	10.00
17.8264	14.00
17.8468	21.00
17.8672	14.00
17.8877	15.00
17.9081	14.00
17.9285	16.00
17.9489	11.00
17.9694	16.00
17.9898	18.00
18.0102	14.00
18.0306	10.00
18.0511	8.00
18.0715	16.00
18.0919	15.00
18.1123	13.00
18.1328	10.00
18.1532	17.00
18.1736	15.00
18.194	13.00
18.2145	15.00
18.2349	15.00
18.2553	14.00
18.2757	17.00
18.2962	15.00
18.3166	17.00
18.337	17.00
18.3574	16.00
18.3778	16.00
18.3983	17.00
18.4187	12.00
18.4391	19.00
18.4595	16.00
18.48	18.00
18.5004	14.00
18.5208	10.00
18.5412	16.00
18.5617	13.00
18.5821	18.00
18.6025	16.00
18.6229	16.00
18.6434	18.00
18.6638	14.00
18.6842	11.00
18.7046	16.00
18.7251	11.00
18.7455	12.00
18.7659	14.00
18.7863	14.00
18.8068	15.00
18.8272	14.00
18.8476	17.00
18.868	12.00
18.8885	18.00
18.9089	14.00
18.9293	13.00
18.9497	16.00
18.9702	14.00
18.9906	23.00
19.011	21.00
19.0314	11.00
19.0518	15.00
19.0723	14.00
19.0927	14.00
19.1131	10.00
19.1335	20.00
19.154	18.00
19.1744	19.00
19.1948	14.00
19.2152	19.00
19.2357	22.00
19.2561	19.00
19.2765	22.00
19.2969	20.00
19.3174	29.00
19.3378	23.00
19.3582	21.00
19.3786	28.00
19.3991	21.00
19.4195	19.00
19.4399	25.00
19.4603	20.00
19.4808	23.00
19.5012	23.00
19.5216	25.00
19.542	19.00
19.5625	21.00
19.5829	24.00
19.6033	22.00
19.6237	22.00
19.6441	30.00
19.6646	28.00
19.685	28.00
19.7054	23.00
19.7258	25.00
19.7463	23.00
19.7667	26.00
19.7871	21.00
19.8075	13.00
19.828	17.00
19.8484	15.00
19.8688	29.00
19.8892	21.00
19.9097	22.00
19.9301	15.00
19.9505	18.00
19.9709	28.00
19.9914	32.00
20.0118	17.00
20.0322	17.00
20.0526	28.00
20.0731	29.00
20.0935	19.00
20.1139	21.00
20.1343	22.00
20.1548	20.00
20.1752	21.00
20.1956	19.00
20.216	21.00
20.2365	15.00
20.2569	17.00
20.2773	12.00
20.2977	18.00
20.3181	16.00
20.3386	16.00
20.359	17.00
20.3794	21.00
20.3998	22.00
20.4203	14.00
20.4407	10.00
20.4611	23.00
20.4815	24.00
20.502	14.00
20.5224	19.00
20.5428	33.00
20.5632	29.00
20.5837	20.00
20.6041	26.00
20.6245	30.00
20.6449	22.00
20.6654	24.00
20.6858	27.00
20.7062	19.00
20.7266	20.00
20.7471	24.00
20.7675	20.00
20.7879	18.00
20.8083	21.00
20.8288	17.00
20.8492	16.00
20.8696	22.00
20.89	8.00
20.9104	22.00
20.9309	18.00
20.9513	21.00
20.9717	16.00
20.9921	17.00
21.0126	14.00
21.033	12.00
21.0534	12.00
21.0738	17.00
21.0943	20.00
21.1147	18.00
21.1351	20.00
21.1555	18.00
21.176	20.00
21.1964	19.00
21.2168	24.00
21.2372	18.00
21.2577	13.00
21.2781	19.00
21.2985	12.00
21.3189	25.00
21.3394	15.00
21.3598	24.00
21.3802	25.00
21.4006	7.00
21.4211	18.00
21.4415	27.00
21.4619	15.00
21.4823	15.00
21.5027	9.00
21.5232	21.00
21.5436	13.00
21.564	19.00
21.5844	25.00
21.6049	18.00
21.6253	27.00
21.6457	18.00
21.6661	13.00
21.6866	19.00
21.707	24.00
21.7274	14.00
21.7478	23.00
21.7683	20.00
21.7887	18.00
21.8091	12.00
21.8295	14.00
21.85	22.00
21.8704	21.00
21.8908	11.00
21.9112	22.00
21.9317	20.00
21.9521	16.00
21.9725	13.00
21.9929	24.00
22.0134	20.00
22.0338	16.00
22.0542	23.00
22.0746	20.00
22.0951	15.00
22.1155	20.00
22.1359	19.00
22.1563	15.00
22.1767	15.00
22.1972	19.00
22.2176	14.00
22.238	26.00
22.2584	13.00
22.2789	19.00
22.2993	20.00
22.3197	26.00
22.3401	18.00
22.3606	17.00
22.381	22.00
22.4014	19.00
22.4218	16.00
22.4423	25.00
22.4627	17.00
22.4831	23.00
22.5035	22.00
22.524	18.00
22.5444	25.00
22.5648	23.00
22.5852	20.00
22.6057	24.00
22.6261	26.00
22.6465	29.00
22.6669	37.00
22.6874	37.00
22.7078	33.00
22.7282	41.00
22.7486	44.00
22.769	65.00
22.7895	80.00
22.8099	104.00
22.8303	151.00
22.8507	267.00
22.8712	323.00
22.8916	307.00
22.912	292.00
22.9324	264.00
22.9529	215.00
22.9733	147.00
22.9937	113.00
23.0141	99.00
23.0346	76.00
23.055	71.00
23.0754	46.00
23.0958	28.00
23.1163	40.00
23.1367	31.00
23.1571	38.00
23.1775	35.00
23.198	34.00
23.2184	24.00
23.2388	29.00
23.2592	19.00
23.2797	19.00
23.3001	16.00
23.3205	26.00
23.3409	27.00
23.3614	17.00
23.3818	17.00
23.4022	23.00
23.4226	24.00
23.443	24.00
23.4635	19.00
23.4839	14.00
23.5043	25.00
23.5247	23.00
23.5452	21.00
23.5656	23.00
23.586	29.00
23.6064	19.00
23.6269	31.00
23.6473	33.00
23.6677	11.00
23.6881	31.00
23.7086	23.00
23.729	31.00
23.7494	30.00
23.7698	38.00
23.7903	63.00
23.8107	54.00
23.8311	68.00
23.8515	95.00
23.872	120.00
23.8924	108.00
23.9128	79.00
23.9332	88.00
23.9537	74.00
23.9741	46.00
23.9945	46.00
24.0149	43.00
24.0353	30.00
24.0558	28.00
24.0762	36.00
24.0966	43.00
24.117	33.00
24.1375	27.00
24.1579	45.00
24.1783	39.00
24.1987	34.00
24.2192	34.00
24.2396	43.00
24.26	28.00
24.2804	25.00
24.3009	27.00
24.3213	26.00
24.3417	24.00
24.3621	23.00
24.3826	19.00
24.403	19.00
24.4234	33.00
24.4438	29.00
24.4643	17.00
24.4847	21.00
24.5051	18.00
24.5255	28.00
24.546	21.00
24.5664	21.00
24.5868	21.00
24.6072	17.00
24.6277	23.00
24.6481	17.00
24.6685	18.00
24.6889	30.00
24.7093	17.00
24.7298	20.00
24.7502	32.00
24.7706	12.00
24.791	17.00
24.8115	16.00
24.8319	17.00
24.8523	19.00
24.8727	16.00
24.8932	25.00
24.9136	17.00
24.934	17.00
24.9544	16.00
24.9749	17.00
24.9953	20.00
25.0157	10.00
25.0361	21.00
25.0566	21.00
25.077	15.00
25.0974	25.00
25.1178	19.00
25.1383	25.00
25.1587	13.00
25.1791	18.00
25.1995	23.00
25.22	22.00
25.2404	30.00
25.2608	30.00
25.2812	32.00
25.3016	32.00
25.3221	40.00
25.3425	28.00
25.3629	61.00
25.3833	50.00
25.4038	63.00
25.4242	102.00
25.4446	118.00
25.465	87.00
25.4855	110.00
25.5059	69.00
25.5263	89.00
25.5467	105.00
25.5672	92.00
25.5876	101.00
25.608	88.00
25.6284	76.00
25.6489	77.00
25.6693	46.00
25.6897	47.00
25.7101	42.00
25.7306	32.00
25.751	31.00
25.7714	32.00
25.7918	23.00
25.8123	30.00
25.8327	20.00
25.8531	21.00
25.8735	26.00
25.894	22.00
25.9144	23.00
25.9348	29.00
25.9552	24.00
25.9756	23.00
25.9961	19.00
26.0165	20.00
26.0369	17.00
26.0573	25.00
26.0778	20.00
26.0982	21.00
26.1186	21.00
26.139	19.00
26.1595	10.00
26.1799	19.00
26.2003	20.00
26.2207	32.00
26.2412	19.00
26.2616	23.00
26.282	18.00
26.3024	28.00
26.3229	43.00
26.3433	23.00
26.3637	27.00
26.3841	30.00
26.4046	22.00
26.425	23.00
26.4454	29.00
26.4658	26.00
26.4863	22.00
26.5067	25.00
26.5271	22.00
26.5475	16.00
26.5679	21.00
26.5884	24.00
26.6088	41.00
26.6292	25.00
26.6496	27.00
26.6701	41.00
26.6905	27.00
26.7109	28.00
26.7313	25.00
26.7518	28.00
26.7722	25.00
26.7926	22.00
26.813	20.00
26.8335	23.00
26.8539	15.00
26.8743	23.00
26.8947	24.00
26.9152	27.00
26.9356	22.00
26.956	22.00
26.9764	24.00
26.9969	23.00
27.0173	25.00
27.0377	19.00
27.0581	23.00
27.0786	36.00
27.099	22.00
27.1194	22.00
27.1398	28.00
27.1603	23.00
27.1807	27.00
27.2011	31.00
27.2215	24.00
27.2419	35.00
27.2624	25.00
27.2828	25.00
27.3032	30.00
27.3236	20.00
27.3441	25.00
27.3645	21.00
27.3849	21.00
27.4053	21.00
27.4258	30.00
27.4462	27.00
27.4666	20.00
27.487	32.00
27.5075	29.00
27.5279	28.00
27.5483	26.00
27.5687	26.00
27.5892	23.00
27.6096	46.00
27.63	45.00
27.6504	46.00
27.6709	31.00
27.6913	39.00
27.7117	31.00
27.7321	31.00
27.7526	29.00
27.773	23.00
27.7934	33.00
27.8138	29.00
27.8342	28.00
27.8547	24.00
27.8751	20.00
27.8955	25.00
27.9159	31.00
27.9364	23.00
27.9568	26.00
27.9772	25.00
27.9976	26.00
28.0181	21.00
28.0385	30.00
28.0589	28.00
28.0793	30.00
28.0998	32.00
28.1202	26.00
28.1406	33.00
28.161	38.00
28.1815	37.00
28.2019	35.00
28.2223	40.00
28.2427	33.00
28.2632	31.00
28.2836	38.00
28.304	28.00
28.3244	32.00
28.3449	29.00
28.3653	40.00
28.3857	37.00
28.4061	32.00
28.4265	30.00
28.447	28.00
28.4674	28.00
28.4878	43.00
28.5082	43.00
28.5287	57.00
28.5491	52.00
28.5695	39.00
28.5899	43.00
28.6104	45.00
28.6308	41.00
28.6512	43.00
28.6716	34.00
28.6921	27.00
28.7125	34.00
28.7329	46.00
28.7533	31.00
28.7738	37.00
28.7942	34.00
28.8146	38.00
28.835	33.00
28.8555	31.00
28.8759	29.00
28.8963	23.00
28.9167	28.00
28.9372	28.00
28.9576	22.00
28.978	32.00
28.9984	27.00
29.0189	25.00
29.0393	32.00
29.0597	37.00
29.0801	28.00
29.1005	14.00
29.121	29.00
29.1414	35.00
29.1618	32.00
29.1822	26.00
29.2027	32.00
29.2231	33.00
29.2435	33.00
29.2639	27.00
29.2844	28.00
29.3048	24.00
29.3252	38.00
29.3456	40.00
29.3661	26.00
29.3865	26.00
29.4069	40.00
29.4273	23.00
29.4478	26.00
29.4682	39.00
29.4886	31.00
29.509	40.00
29.5295	33.00
29.5499	32.00
29.5703	36.00
29.5907	34.00
29.6112	50.00
29.6316	53.00
29.652	53.00
29.6724	57.00
29.6928	77.00
29.7133	65.00
29.7337	80.00
29.7541	70.00
29.7745	91.00
29.795	112.00
29.8154	175.00
29.8358	210.00
29.8562	248.00
29.8767	254.00
29.8971	179.00
29.9175	172.00
29.9379	132.00
29.9584	139.00
29.9788	89.00
29.9992	70.00
30.0196	64.00
30.0401	41.00
30.0605	50.00
30.0809	46.00
30.1013	57.00
30.1218	58.00
30.1422	52.00
30.1626	45.00
30.183	47.00
30.2035	43.00
30.2239	57.00
30.2443	36.00
30.2647	48.00
30.2852	40.00
30.3056	61.00
30.326	79.00
30.3464	77.00
30.3668	89.00
30.3873	78.00
30.4077	56.00
30.4281	80.00
30.4485	59.00
30.469	58.00
30.4894	29.00
30.5098	43.00
30.5302	27.00
30.5507	30.00
30.5711	41.00
30.5915	31.00
30.6119	37.00
30.6324	26.00
30.6528	33.00
30.6732	27.00
30.6936	20.00
30.7141	23.00
30.7345	20.00
30.7549	31.00
30.7753	32.00
30.7958	30.00
30.8162	34.00
30.8366	44.00
30.857	56.00
30.8775	63.00
30.8979	56.00
30.9183	45.00
30.9387	47.00
30.9591	49.00
30.9796	46.00
31	40.00
31.0204	48.00
31.0408	41.00
31.0613	29.00
31.0817	43.00
31.1021	34.00
31.1225	33.00
31.143	29.00
31.1634	39.00
31.1838	31.00
31.2042	27.00
31.2247	28.00
31.2451	30.00
31.2655	20.00
31.2859	21.00
31.3064	21.00
31.3268	27.00
31.3472	29.00
31.3676	19.00
31.3881	15.00
31.4085	23.00
31.4289	22.00
31.4493	21.00
31.4698	20.00
31.4902	21.00
31.5106	23.00
31.531	19.00
31.5515	15.00
31.5719	24.00
31.5923	16.00
31.6127	19.00
31.6331	28.00
31.6536	24.00
31.674	25.00
31.6944	26.00
31.7148	34.00
31.7353	34.00
31.7557	19.00
31.7761	27.00
31.7965	26.00
31.817	20.00
31.8374	35.00
31.8578	27.00
31.8782	23.00
31.8987	24.00
31.9191	41.00
31.9395	26.00
31.9599	38.00
31.9804	30.00
32.0008	31.00
32.0212	35.00
32.0416	26.00
32.0621	39.00
32.0825	40.00
32.1029	49.00
32.1233	48.00
32.1438	38.00
32.1642	65.00
32.1846	79.00
32.205	87.00
32.2254	119.00
32.2459	160.00
32.2663	201.00
32.2867	304.00
32.3071	277.00
32.3276	342.00
32.348	298.00
32.3684	305.00
32.3888	265.00
32.4093	208.00
32.4297	175.00
32.4501	127.00
32.4705	101.00
32.491	90.00
32.5114	78.00
32.5318	57.00
32.5522	60.00
32.5727	51.00
32.5931	42.00
32.6135	39.00
32.6339	37.00
32.6544	40.00
32.6748	36.00
32.6952	44.00
32.7156	37.00
32.7361	36.00
32.7565	34.00
32.7769	28.00
32.7973	29.00
